    Freq(Hz),                     FSD, Direction=,3, M0=,231.60, Q=,10.00, RMS=,1648.78
       20.00,             4936.571619,
       20.05,             4939.977825,
       20.09,             4943.402736,
       20.14,             4946.848428,
       20.19,             4950.314903,
       20.23,             4953.801120,
       20.28,             4957.308120,
       20.33,             4960.834863,
       20.38,             4964.382389,
       20.42,             4967.951735,
       20.47,             4971.541864,
       20.52,             4975.152775,
       20.57,             4978.785508,
       20.61,             4982.439022,
       20.66,             4986.115397,
       20.71,             4989.812555,
       20.76,             4993.531533,
       20.81,             4997.273372,
       20.86,             5001.037033,
       20.90,             5004.823554,
       20.95,             5008.631896,
       21.00,             5012.464138,
       21.05,             5016.318201,
       21.10,             5020.196163,
       21.15,             5024.096986,
       21.20,             5028.020670,
       21.25,             5031.968253,
       21.30,             5035.939736,
       21.35,             5039.936157,
       21.40,             5043.955439,
       21.45,             5047.998620,
       21.50,             5052.067779,
       21.55,             5056.159799,
       21.60,             5060.277796,
       21.65,             5064.420732,
       21.70,             5068.588607,
       21.75,             5072.781420,
       21.80,             5077.000211,
       21.85,             5081.244980,
       21.90,             5085.515726,
       21.95,             5089.812451,
       22.00,             5094.135153,
       22.05,             5098.483833,
       22.10,             5102.860569,
       22.16,             5107.263283,
       22.21,             5111.693013,
       22.26,             5116.150800,
       22.31,             5120.635603,
       22.36,             5125.148463,
       22.41,             5129.689379,
       22.47,             5134.257311,
       22.52,             5138.854338,
       22.57,             5143.480461,
       22.62,             5148.134640,
       22.68,             5152.817913,
       22.73,             5157.531321,
       22.78,             5162.272785,
       22.84,             5167.045423,
       22.89,             5171.847155,
       22.94,             5176.679022,
       23.00,             5181.541023,
       23.05,             5186.434197,
       23.10,             5191.357505,
       23.16,             5196.311987,
       23.21,             5201.298681,
       23.26,             5206.316549,
       23.32,             5211.365589,
       23.37,             5216.446843,
       23.43,             5221.561348,
       23.48,             5226.708065,
       23.54,             5231.886995,
       23.59,             5237.099176,
       23.65,             5242.345648,
       23.70,             5247.625371,
       23.76,             5252.938346,
       23.81,             5258.285612,
       23.87,             5263.668208,
       23.92,             5269.084055,
       23.98,             5274.536271,
       24.03,             5280.022777,
       24.09,             5285.545653,
       24.15,             5291.103858,
       24.20,             5296.698432,
       24.26,             5302.329375,
       24.32,             5307.996687,
       24.37,             5313.701407,
       24.43,             5319.443535,
       24.49,             5325.223071,
       24.54,             5331.041054,
       24.60,             5336.896445,
       24.66,             5342.791323,
       24.71,             5348.724647,
       24.77,             5354.697458,
       24.83,             5360.709754,
       24.89,             5366.761538,
       24.95,             5372.853846,
       25.00,             5378.986680,
       25.06,             5385.160039,
       25.12,             5391.374962,
       25.18,             5397.631450,
       25.24,             5403.930542,
       25.30,             5410.271198,
       25.35,             5416.654457,
       25.41,             5423.081359,
       25.47,             5429.550865,
       25.53,             5436.065053,
       25.59,             5442.622883,
       25.65,             5449.225395,
       25.71,             5455.872588,
       25.77,             5462.565503,
       25.83,             5469.303099,
       25.89,             5476.087456,
       25.95,             5482.918572,
       26.01,             5489.796449,
       26.07,             5496.722124,
       26.13,             5503.694560,
       26.19,             5510.715833,
       26.25,             5517.785945,
       26.32,             5524.904895,
       26.38,             5532.072684,
       26.44,             5539.291389,
       26.50,             5546.559971,
       26.56,             5553.879469,
       26.62,             5561.249884,
       26.69,             5568.672255,
       26.75,             5576.146581,
       26.81,             5583.673902,
       26.87,             5591.254217,
       26.94,             5598.888567,
       27.00,             5606.576950,
       27.06,             5614.320406,
       27.12,             5622.117895,
       27.19,             5629.971497,
       27.25,             5637.882250,
       27.31,             5645.849115,
       27.38,             5653.873131,
       27.44,             5661.954298,
       27.51,             5670.094694,
       27.57,             5678.293281,
       27.63,             5686.552136,
       27.70,             5694.870220,
       27.76,             5703.249612,
       27.83,             5711.690312,
       27.89,             5720.192319,
       27.96,             5728.756672,
       28.02,             5737.383373,
       28.09,             5746.074498,
       28.15,             5754.829009,
       28.22,             5763.648984,
       28.28,             5772.534423,
       28.35,             5781.486365,
       28.42,             5790.503771,
       28.48,             5799.589759,
       28.55,             5808.743289,
       28.61,             5817.965400,
       28.68,             5827.258170,
       28.75,             5836.619522,
       28.81,             5846.052573,
       28.88,             5855.557322,
       28.95,             5865.133770,
       29.02,             5874.783995,
       29.08,             5884.506957,
       29.15,             5894.304736,
       29.22,             5904.178370,
       29.29,             5914.127858,
       29.36,             5924.154241,
       29.42,             5934.258558,
       29.49,             5944.440808,
       29.56,             5954.702030,
       29.63,             5965.044303,
       29.70,             5975.467626,
       29.77,             5985.972000,
       29.84,             5996.559503,
       29.91,             6007.230135,
       29.98,             6017.985974,
       30.05,             6028.827020,
       30.12,             6039.754313,
       30.19,             6050.768890,
       30.26,             6061.871792,
       30.33,             6073.064058,
       30.40,             6084.346726,
       30.47,             6095.719797,
       30.54,             6107.185349,
       30.61,             6118.744421,
       30.68,             6130.397013,
       30.75,             6142.145203,
       30.83,             6153.990031,
       30.90,             6165.932535,
       30.97,             6177.973754,
       31.04,             6190.113689,
       31.11,             6202.355457,
       31.19,             6214.699058,
       31.26,             6227.145531,
       31.33,             6239.696954,
       31.40,             6252.353327,
       31.48,             6265.116729,
       31.55,             6277.988198,
       31.62,             6290.969813,
       31.70,             6304.061574,
       31.77,             6317.264519,
       31.85,             6330.581767,
       31.92,             6344.014356,
       31.99,             6357.562287,
       32.07,             6371.227637,
       32.14,             6385.011446,
       32.22,             6398.916831,
       32.29,             6412.943791,
       32.37,             6427.094406,
       32.44,             6441.369715,
       32.52,             6455.771795,
       32.60,             6470.301685,
       32.67,             6484.961465,
       32.75,             6499.752172,
       32.82,             6514.676925,
       32.90,             6529.735723,
       32.98,             6544.931684,
       33.05,             6560.265846,
       33.13,             6575.740289,
       33.21,             6591.357089,
       33.28,             6607.117288,
       33.36,             6623.022961,
       33.44,             6639.076189,
       33.52,             6655.280087,
       33.60,             6671.634657,
       33.67,             6688.144054,
       33.75,             6704.809318,
       33.83,             6721.631488,
       33.91,             6738.614719,
       33.99,             6755.761092,
       34.07,             6773.071644,
       34.15,             6790.548453,
       34.23,             6808.195677,
       34.31,             6826.014354,
       34.39,             6844.007602,
       34.47,             6862.177499,
       34.55,             6880.527162,
       34.63,             6899.057630,
       34.71,             6917.774099,
       34.79,             6936.677609,
       34.87,             6955.771275,
       34.95,             6975.058216,
       35.03,             6994.540510,
       35.11,             7014.222314,
       35.20,             7034.105705,
       35.28,             7054.193800,
       35.36,             7074.490758,
       35.44,             7094.999693,
       35.52,             7115.722686,
       35.61,             7136.663892,
       35.69,             7157.826429,
       35.77,             7179.214453,
       35.86,             7200.832120,
       35.94,             7222.681509,
       36.02,             7244.767816,
       36.11,             7267.094157,
       36.19,             7289.664689,
       36.28,             7312.482530,
       36.36,             7335.553914,
       36.44,             7358.881958,
       36.53,             7382.470819,
       36.61,             7406.325693,
       36.70,             7430.450735,
       36.79,             7454.850103,
       36.87,             7479.528992,
       36.96,             7504.493636,
       37.04,             7529.747153,
       37.13,             7555.295778,
       37.22,             7581.143666,
       37.30,             7607.298093,
       37.39,             7633.764253,
       37.48,             7660.546302,
       37.56,             7687.651515,
       37.65,             7715.085088,
       37.74,             7742.854293,
       37.83,             7770.964326,
       37.91,             7799.422462,
       38.00,             7828.234935,
       38.09,             7857.407979,
       38.18,             7886.949908,
       38.27,             7916.866955,
       38.36,             7947.166396,
       38.45,             7977.855503,
       38.54,             8008.942590,
       38.63,             8040.434930,
       38.72,             8072.341876,
       38.81,             8104.669661,
       38.90,             8137.426600,
       38.99,             8170.623082,
       39.08,             8204.266382,
       39.17,             8238.364813,
       39.26,             8272.928766,
       39.35,             8307.966553,
       39.44,             8343.487527,
       39.54,             8379.500001,
       39.63,             8416.015404,
       39.72,             8453.039971,
       39.81,             8490.586173,
       39.91,             8528.661282,
       40.00,             8567.275690,
       40.09,             8606.438748,
       40.18,             8646.157731,
       40.28,             8686.443029,
       40.37,             8727.302956,
       40.47,             8768.744785,
       40.56,             8810.775790,
       40.65,             8853.405323,
       40.75,             8896.636501,
       40.84,             8940.478677,
       40.94,             8984.933928,
       41.03,             9030.008490,
       41.13,             9075.704439,
       41.23,             9122.024895,
       41.32,             9168.972974,
       41.42,             9216.547636,
       41.51,             9264.752001,
       41.61,             9313.586066,
       41.71,             9363.049833,
       41.81,             9413.147457,
       41.90,             9463.881018,
       42.00,             9515.256749,
       42.10,             9567.281924,
       42.20,             9619.970053,
       42.29,             9673.337760,
       42.39,             9727.404789,
       42.49,             9782.198156,
       42.59,             9837.749036,
       42.69,             9894.091718,
       42.79,             9951.265689,
       42.89,            10009.310435,
       42.99,            10068.264404,
       43.09,            10128.163963,
       43.19,            10189.041326,
       43.29,            10250.918314,
       43.39,            10313.808436,
       43.49,            10377.710651,
       43.59,            10442.609374,
       43.69,            10508.468236,
       43.80,            10575.251907,
       43.90,            10642.866866,
       44.00,            10711.229985,
       44.10,            10780.226963,
       44.21,            10849.701931,
       44.31,            10919.488633,
       44.41,            10989.379245,
       44.51,            11059.134774,
       44.62,            11128.474658,
       44.72,            11197.076773,
       44.83,            11264.577430,
       44.93,            11330.560985,
       45.04,            11394.528664,
       45.14,            11455.971304,
       45.25,            11514.265437,
       45.35,            11568.756423,
       45.46,            11618.727276,
       45.56,            11663.357098,
       45.67,            11701.824991,
       45.77,            11733.206146,
       45.88,            11756.596537,
       45.99,            11771.050572,
       46.10,            11775.643444,
       46.20,            11769.523079,
       46.31,            11751.941319,
       46.42,            11722.264306,
       46.53,            11680.097178,
       46.63,            11625.294458,
       46.74,            11557.991232,
       46.85,            11478.696664,
       46.96,            11388.252433,
       47.07,            11287.905474,
       47.18,            11179.235235,
       47.29,            11064.153680,
       47.40,            10944.780597,
       47.51,            10823.433202,
       47.62,            10702.459888,
       47.73,            10584.188262,
       47.84,            10470.800458,
       47.95,            10364.281179,
       48.07,            10266.320019,
       48.18,            10178.303152,
       48.29,            10101.279042,
       48.40,            10035.969870,
       48.52,             9982.787125,
       48.63,             9941.866929,
       48.74,             9913.110569,
       48.85,             9896.223974,
       48.97,             9890.769680,
       49.08,             9896.197996,
       49.20,             9911.888574,
       49.31,             9937.181577,
       49.43,             9971.400545,
       49.54,            10013.874211,
       49.66,            10063.950015,
       49.77,            10121.007605,
       49.89,            10184.463003,
       50.00,            10253.776909,
       50.12,            10328.453668,
       50.24,            10408.038148,
       50.35,            10492.133409,
       50.47,            10580.364333,
       50.59,            10672.419186,
       50.71,            10767.996625,
       50.83,            10866.868046,
       50.94,            10968.794454,
       51.06,            11073.599200,
       51.18,            11181.105635,
       51.30,            11291.189065,
       51.42,            11403.735189,
       51.54,            11518.640095,
       51.66,            11635.831045,
       51.78,            11755.235302,
       51.90,            11876.800909,
       52.02,            12000.517477,
       52.14,            12126.333050,
       52.26,            12254.247626,
       52.39,            12384.261208,
       52.51,            12516.373793,
       52.63,            12650.595774,
       52.75,            12786.937542,
       52.88,            12925.451052,
       53.00,            13066.146695,
       53.12,            13209.066037,
       53.25,            13354.261031,
       53.37,            13501.773243,
       53.49,            13651.654629,
       53.62,            13803.967534,
       53.74,            13958.763915,
       53.87,            14116.116509,
       53.99,            14276.108446,
       54.12,            14438.781289,
       54.25,            14604.238950,
       54.37,            14772.564557,
       54.50,            14943.820458,
       54.63,            15118.110563,
       54.75,            15295.528393,
       54.88,            15476.167467,
       55.01,            15660.121306,
       55.14,            15847.504211,
       55.26,            16038.430485,
       55.39,            16233.004039,
       55.52,            16431.339175,
       55.65,            16633.570978,
       55.78,            16839.813750,
       55.91,            17050.212966,
       56.04,            17264.893320,
       56.17,            17484.000287,
       56.30,            17707.689734,
       56.43,            17936.107137,
       56.56,            18169.418752,
       56.70,            18407.780448,
       56.83,            18651.379264,
       56.96,            18900.381458,
       57.09,            19154.984460,
       57.23,            19415.385702,
       57.36,            19681.772225,
       57.49,            19954.372631,
       57.63,            20233.405136,
       57.76,            20519.087951,
       57.90,            20811.670465,
       58.03,            21111.402062,
       58.17,            21418.532131,
       58.30,            21733.351622,
       58.44,            22056.141095,
       58.57,            22387.181110,
       58.71,            22726.793792,
       58.85,            23075.311655,
       58.98,            23433.056826,
       59.12,            23800.403383,
       59.26,            24177.704624,
       59.40,            24565.365803,
       59.53,            24963.781783,
       59.67,            25373.388988,
       59.81,            25794.634238,
       59.95,            26227.985132,
       60.09,            26673.940444,
       60.23,            27133.019730,
       60.37,            27605.763326,
       60.51,            28092.742744,
       60.65,            28594.571060,
       60.79,            29111.871740,
       60.94,            29645.299425,
       61.08,            30195.581492,
       61.22,            30763.434927,
       61.36,            31349.659847,
       61.50,            31955.045975,
       61.65,            32580.486948,
       61.79,            33226.886792,
       61.94,            33895.201489,
       62.08,            34586.459759,
       62.22,            35301.731886,
       62.37,            36042.150503,
       62.51,            36808.920977,
       62.66,            37603.311024,
       62.81,            38426.671488,
       62.95,            39280.425952,
       63.10,            40166.070736,
       63.25,            41085.206071,
       63.39,            42039.536099,
       63.54,            43030.848091,
       63.69,            44061.033230,
       63.84,            45132.128172,
       63.99,            46246.252706,
       64.13,            47405.692874,
       64.28,            48612.859416,
       64.43,            49870.308543,
       64.58,            51180.752337,
       64.73,            52547.069135,
       64.88,            53972.324315,
       65.04,            55459.770294,
       65.19,            57012.846531,
       65.34,            58635.200304,
