    Time,sec      Abs(UY,mm)      Abs(UZ,mm)   Phase(UY,deg)   Phase(UZ,deg)       Freqz(Hz)=189.16       Freqy(Hz)=189.16
    0.000000        0.000000        0.000000        0.000000          180.00        0.00        0.00
    0.000500        0.001978        0.001978        1.219087          -88.78        0.00        0.00
    0.001000        0.006928        0.006928        2.556533          -87.44        0.00        0.00
    0.001500        0.012874        0.012874        4.132774          -85.87        0.00        0.00
    0.002000        0.017779        0.017779        6.117059          -83.88        0.00        0.00
    0.002500        0.020208        0.020208        8.799471          -81.20        0.00        0.00
    0.003000        0.019730        0.019730       12.702785          -77.30        0.00        0.00
    0.003500        0.016951        0.016951       18.784809          -71.22        0.00        0.00
    0.004000        0.013235        0.013235       28.582945          -61.42        0.00        0.00
    0.004500        0.010161        0.010161       42.979819          -47.02        0.00        0.00
    0.005000        0.008666        0.008666       57.385392          -32.61        0.00        0.00
    0.005500        0.008503        0.008503       62.734935          -27.27        0.00        0.00
    0.006000        0.009261        0.009261       57.695408          -32.30        0.00        0.00
    0.006500        0.010847        0.010847       49.127784          -40.87        0.00        0.00
    0.007000        0.012777        0.012777       43.033162          -46.97        0.00        0.00
    0.007500        0.014260        0.014260       41.000714          -49.00        0.00        0.00
    0.008000        0.014765        0.014765       42.847216          -47.15        0.00        0.00
    0.008500        0.014288        0.014288       48.409332          -41.59        0.00        0.00
    0.009000        0.013294        0.013294       57.507484          -32.49        0.00        0.00
    0.009500        0.012407        0.012407       68.934088          -21.07        0.00        0.00
    0.010000        0.011971        0.011971       79.803572          -10.20        0.00        0.00
    0.010500        0.011878        0.011878       87.121785           -2.88        0.00        0.00
    0.011000        0.011878        0.011878       89.808329           -0.19        0.00        0.00
    0.011500        0.011887        0.011887       88.721641           -1.28        0.00        0.00
    0.012000        0.011949        0.011949       85.875054           -4.12        0.00        0.00
    0.012500        0.012063        0.012063       83.608033           -6.39        0.00        0.00
    0.013000        0.012149        0.012149       83.701902           -6.30        0.00        0.00
    0.013500        0.012159        0.012159       86.919566           -3.08        0.00        0.00
    0.014000        0.012161        0.012161       92.980941            2.98        0.00        0.00
    0.014500        0.012267        0.012267      100.683578           10.68        0.00        0.00
    0.015000        0.012496        0.012496      108.365243           18.37        0.00        0.00
    0.015500        0.012731        0.012731      114.695759           24.70        0.00        0.00
    0.016000        0.012823        0.012823      119.131635           29.13        0.00        0.00
    0.016500        0.012700        0.012700      121.809509           31.81        0.00        0.00
    0.017000        0.012401        0.012401      123.287301           33.29        0.00        0.00
    0.017500        0.012041        0.012041      124.364938           34.36        0.00        0.00
    0.018000        0.011740        0.011740      125.899709           35.90        0.00        0.00
    0.018500        0.011592        0.011592      128.526372           38.53        0.00        0.00
    0.019000        0.011639        0.011639      132.389930           42.39        0.00        0.00
    0.019500        0.011870        0.011870      137.116357           47.12        0.00        0.00
    0.020000        0.012208        0.012208      142.084280           52.08        0.00        0.00
    0.020500        0.012537        0.012537      146.774086           56.77        0.00        0.00
    0.021000        0.012742        0.012742      150.940252           60.94        0.00        0.00
    0.021500        0.012759        0.012759      154.586533           64.59        0.00        0.00
    0.022000        0.012596        0.012596      157.867284           67.87        0.00        0.00
    0.022500        0.012322        0.012322      160.996517           71.00        0.00        0.00
    0.023000        0.012037        0.012037      164.174731           74.17        0.00        0.00
    0.023500        0.011834        0.011834      167.526588           77.53        0.00        0.00
    0.024000        0.011771        0.011771      171.065269           81.07        0.00        0.00
    0.024500        0.011854        0.011854      174.711709           84.71        0.00        0.00
    0.025000        0.012038        0.012038      178.363068           88.36        0.00        0.00
    0.025500        0.012251        0.012251     -178.039982           91.96        0.00        0.00
    0.026000        0.012422        0.012422     -174.490194           95.51        0.00        0.00
    0.026500        0.012500        0.012500     -170.933744           99.07        0.00        0.00
    0.027000        0.012474        0.012474     -167.308363          102.69        0.00        0.00
    0.027500        0.012368        0.012368     -163.579597          106.42        0.00        0.00
    0.028000        0.012228        0.012228     -159.763957          110.24        0.00        0.00
    0.028500        0.012106        0.012106     -155.929816          114.07        0.00        0.00
    0.029000        0.012036        0.012036     -152.170947          117.83        0.00        0.00
    0.029500        0.012032        0.012032     -148.561817          121.44        0.00        0.00
    0.030000        0.012082        0.012082     -145.119265          124.88        0.00        0.00
    0.030500        0.012160        0.012160     -141.793209          128.21        0.00        0.00
    0.031000        0.012236        0.012236     -138.488890          131.51        0.00        0.00
    0.031500        0.012285        0.012285     -135.105144          134.89        0.00        0.00
    0.032000        0.012299        0.012299     -131.570682          138.43        0.00        0.00
    0.032500        0.012281        0.012281     -127.867197          142.13        0.00        0.00
    0.033000        0.012245        0.012245     -124.034304          145.97        0.00        0.00
    0.033500        0.012207        0.012207     -120.154971          149.85        0.00        0.00
    0.034000        0.012181        0.012181     -116.325224          153.67        0.00        0.00
    0.034500        0.012170        0.012170     -112.618910          157.38        0.00        0.00
    0.035000        0.012174        0.012174     -109.062115          160.94        0.00        0.00
    0.035500        0.012185        0.012185     -105.627510          164.37        0.00        0.00
    0.036000        0.012196        0.012196     -102.249024          167.75        0.00        0.00
    0.036500        0.012204        0.012204      -98.848624          171.15        0.00        0.00
    0.037000        0.012207        0.012207      -95.363985          174.64        0.00        0.00
    0.037500        0.012208        0.012208      -91.767594          178.23        0.00        0.00
    0.038000        0.012208        0.012208      -88.072035         -178.07        0.00        0.00
    0.038500        0.012210        0.012210      -84.321075         -174.32        0.00        0.00
    0.039000        0.012214        0.012214      -80.571017         -170.57        0.00        0.00
    0.039500        0.012218        0.012218      -76.869989         -166.87        0.00        0.00
    0.040000        0.012220        0.012220      -73.242920         -163.24        0.00        0.00
    0.040500        0.012217        0.012217      -69.686727         -159.69        0.00        0.00
    0.041000        0.012209        0.012209      -66.175756         -156.18        0.00        0.00
    0.041500        0.012199        0.012199      -62.673893         -152.67        0.00        0.00
    0.042000        0.012190        0.012190      -59.148243         -149.15        0.00        0.00
    0.042500        0.012186        0.012186      -55.579548         -145.58        0.00        0.00
    0.043000        0.012188        0.012188      -51.966280         -141.97        0.00        0.00
    0.043500        0.012196        0.012196      -48.321881         -138.32        0.00        0.00
    0.044000        0.012207        0.012207      -44.667257         -134.67        0.00        0.00
    0.044500        0.012217        0.012217      -41.022090         -131.02        0.00        0.00
    0.045000        0.012224        0.012224      -37.398393         -127.40        0.00        0.00
    0.045500        0.012224        0.012224      -33.798182         -123.80        0.00        0.00
    0.046000        0.012218        0.012218      -30.215172         -120.22        0.00        0.00
    0.046500        0.012208        0.012208      -26.639004         -116.64        0.00        0.00
    0.047000        0.012199        0.012199      -23.059918         -113.06        0.00        0.00
    0.047500        0.012192        0.012192      -19.472116         -109.47        0.00        0.00
    0.048000        0.012190        0.012190      -15.874805         -105.87        0.00        0.00
    0.048500        0.012194        0.012194      -12.271036         -102.27        0.00        0.00
    0.049000        0.012200        0.012200       -8.665272          -98.67        0.00        0.00
    0.049500        0.012208        0.012208       -5.060992          -95.06        0.00        0.00
    0.050000        0.012214        0.012214       -1.459366          -91.46        0.00        0.00
    0.050500        0.012216        0.012216        2.140651          -87.86        0.00        0.00
    0.051000        0.012215        0.012215        5.741147          -84.26        0.00        0.00
    0.051500        0.012211        0.012211        9.343752          -80.66        0.00        0.00
    0.052000        0.012206        0.012206       12.948578          -77.05        0.00        0.00
    0.052500        0.012201        0.012201       16.554078          -73.45        0.00        0.00
    0.053000        0.012199        0.012199       20.157796          -69.84        0.00        0.00
    0.053500        0.012199        0.012199       23.757615          -66.24        0.00        0.00
    0.054000        0.012201        0.012201       27.352855          -62.65        0.00        0.00
    0.054500        0.012204        0.012204       30.944723          -59.06        0.00        0.00
    0.055000        0.012207        0.012207       34.535912          -55.46        0.00        0.00
    0.055500        0.012209        0.012209       38.129550          -51.87        0.00        0.00
    0.056000        0.012209        0.012209       41.727962          -48.27        0.00        0.00
    0.056500        0.012208        0.012208       45.331756          -44.67        0.00        0.00
    0.057000        0.012207        0.012207       48.939596          -41.06        0.00        0.00
    0.057500        0.012205        0.012205       52.548728          -37.45        0.00        0.00
    0.058000        0.012204        0.012204       56.156023          -33.84        0.00        0.00
    0.058500        0.012204        0.012204       59.759120          -30.24        0.00        0.00
    0.059000        0.012204        0.012204       63.357230          -26.64        0.00        0.00
    0.059500        0.012205        0.012205       66.951321          -23.05        0.00        0.00
    0.060000        0.012205        0.012205       70.543656          -19.46        0.00        0.00
    0.060500        0.012206        0.012206       74.136903          -15.86        0.00        0.00
    0.061000        0.012206        0.012206       77.733190          -12.27        0.00        0.00
    0.061500        0.012206        0.012206       81.333418           -8.67        0.00        0.00
    0.062000        0.012206        0.012206       84.937083           -5.06        0.00        0.00
    0.062500        0.012206        0.012206       88.542596           -1.46        0.00        0.00
    0.063000        0.012206        0.012206       92.147944            2.15        0.00        0.00
    0.063500        0.012206        0.012206       95.751422            5.75        0.00        0.00
    0.064000        0.012206        0.012206       99.352166            9.35        0.00        0.00
    0.064500        0.012206        0.012206      102.950331           12.95        0.00        0.00
    0.065000        0.012205        0.012205      106.546894           16.55        0.00        0.00
    0.065500        0.012205        0.012205      110.143210           20.14        0.00        0.00
    0.066000        0.012205        0.012205      113.740496           23.74        0.00        0.00
    0.066500        0.012205        0.012205      117.339452           27.34        0.00        0.00
    0.067000        0.012205        0.012205      120.940108           30.94        0.00        0.00
    0.067500        0.012205        0.012205      124.541936           34.54        0.00        0.00
    0.068000        0.012206        0.012206      128.144122           38.14        0.00        0.00
    0.068500        0.012206        0.012206      131.745899           41.75        0.00        0.00
    0.069000        0.012206        0.012206      135.346792           45.35        0.00        0.00
    0.069500        0.012206        0.012206      138.946719           48.95        0.00        0.00
    0.070000        0.012206        0.012206      142.545936           52.55        0.00        0.00
    0.070500        0.012206        0.012206      146.144871           56.14        0.00        0.00
    0.071000        0.012205        0.012205      149.743939           59.74        0.00        0.00
    0.071500        0.012205        0.012205      153.343399           63.34        0.00        0.00
    0.072000        0.012205        0.012205      156.943303           66.94        0.00        0.00
    0.072500        0.012205        0.012205      160.543531           70.54        0.00        0.00
    0.073000        0.012205        0.012205      164.143888           74.14        0.00        0.00
    0.073500        0.012206        0.012206      167.744198           77.74        0.00        0.00
    0.074000        0.012206        0.012206      171.344373           81.34        0.00        0.00
    0.074500        0.012206        0.012206      174.944419           84.94        0.00        0.00
    0.075000        0.012206        0.012206      178.544407           88.54        0.00        0.00
    0.075500        0.012206        0.012206     -177.855587           92.14        0.00        0.00
    0.076000        0.012205        0.012205     -174.255525           95.74        0.00        0.00
    0.076500        0.012205        0.012205     -170.655426           99.34        0.00        0.00
    0.077000        0.012205        0.012205     -167.055353          102.94        0.00        0.00
    0.077500        0.012205        0.012205     -163.455368          106.54        0.00        0.00
    0.078000        0.012205        0.012205     -159.855501          110.14        0.00        0.00
    0.078500        0.012205        0.012205     -156.255728          113.74        0.00        0.00
    0.079000        0.012206        0.012206     -152.655976          117.34        0.00        0.00
    0.079500        0.012206        0.012206     -149.056152          120.94        0.00        0.00
    0.080000        0.012206        0.012206     -145.456185          124.54        0.00        0.00
    0.080500        0.012206        0.012206     -141.856054          128.14        0.00        0.00
    0.081000        0.012206        0.012206     -138.255801          131.74        0.00        0.00
    0.081500        0.012205        0.012205     -134.655511          135.34        0.00        0.00
    0.082000        0.012205        0.012205     -131.055286          138.94        0.00        0.00
    0.082500        0.012205        0.012205     -127.455199          142.54        0.00        0.00
    0.083000        0.012205        0.012205     -123.855276          146.14        0.00        0.00
    0.083500        0.012205        0.012205     -120.255483          149.74        0.00        0.00
    0.084000        0.012205        0.012205     -116.655743          153.34        0.00        0.00
    0.084500        0.012205        0.012205     -113.055966          156.94        0.00        0.00
    0.085000        0.012205        0.012205     -109.456083          160.54        0.00        0.00
    0.085500        0.012205        0.012205     -105.856062          164.14        0.00        0.00
    0.086000        0.012205        0.012205     -102.255925          167.74        0.00        0.00
    0.086500        0.012205        0.012205      -98.655728          171.34        0.00        0.00
    0.087000        0.012205        0.012205      -95.055541          174.94        0.00        0.00
    0.087500        0.012205        0.012205      -91.455424          178.54        0.00        0.00
    0.088000        0.012205        0.012205      -87.855406         -177.86        0.00        0.00
    0.088500        0.012205        0.012205      -84.255480         -174.26        0.00        0.00
    0.089000        0.012205        0.012205      -80.655610         -170.66        0.00        0.00
    0.089500        0.012205        0.012205      -77.055746         -167.06        0.00        0.00
    0.090000        0.012205        0.012205      -73.455843         -163.46        0.00        0.00
    0.090500        0.012205        0.012205      -69.855876         -159.86        0.00        0.00
    0.091000        0.012205        0.012205      -66.255846         -156.26        0.00        0.00
    0.091500        0.012205        0.012205      -62.655772         -152.66        0.00        0.00
    0.092000        0.012205        0.012205      -59.055687         -149.06        0.00        0.00
    0.092500        0.012205        0.012205      -55.455619         -145.46        0.00        0.00
    0.093000        0.012205        0.012205      -51.855587         -141.86        0.00        0.00
    0.093500        0.012205        0.012205      -48.255593         -138.26        0.00        0.00
    0.094000        0.012205        0.012205      -44.655628         -134.66        0.00        0.00
    0.094500        0.012205        0.012205      -41.055673         -131.06        0.00        0.00
    0.095000        0.012205        0.012205      -37.455712         -127.46        0.00        0.00
    0.095500        0.012205        0.012205      -33.855734         -123.86        0.00        0.00
    0.096000        0.012205        0.012205      -30.255737         -120.26        0.00        0.00
    0.096500        0.012205        0.012205      -26.655725         -116.66        0.00        0.00
    0.097000        0.012205        0.012205      -23.055707         -113.06        0.00        0.00
    0.097500        0.012205        0.012205      -19.455690         -109.46        0.00        0.00
